-----------------------------------------------------
BloodHound 307 VOC Analyser V2017.1
RoboScientific Ltd 
Espace North
Wisbech Road
Littleport
Cambridgeshire, UK
CB6 1RA 
-----------------------------------------------------
Date = 18/11/2022
Time = 14:18:49
Data is protected by RoboScientific Limited
-----------------------------------------------------
Name of the experiment = "water d"
-----------------------------------------------------
Repeat No. = 2/4
-----------------------------------------------------
Experimental Time (in sec) and Flow Profile :
-----------------------------------------------------
Baseline = 2.00
Absorb = 5.00
Pause = 1.00
Desorb = 5.00
Flush = 20.00
Wait = 5.00
Higher Flow (V) = 4.00
Medium Flow (V) = 3.00
Low Flow (V) = 1.00
-----------------------------------------------------
Total Profile Time = 38 in sec
-----------------------------------------------------
Acquired data point per second = 4
--------------------------------------------------
Total data point stored  = 132
-----------------------------------------------------
Acquired sensor responses from 24 sensors
-----------------------------------------------------

Data Points	 Sen-1	 Sen-2	 Sen-3	 Sen-4	 Sen-5	 Sen-6	 Sen-7	 Sen-8	 Sen-9	 Sen-10	 Sen-11	 Sen-12	 Sen-13	 Sen-14	 Sen-15	 Sen-16	 Sen-17	 Sen-18	 Sen-19	 Sen-20	 Sen-21	 Sen-22	 Sen-23	 Sen-24	Humidity (%r.h.)
0.000	315.520	313.992	312.345	314.899	298.546	275.102	302.986	312.989	315.042	303.822	281.906	306.185	104.383	105.768	107.248	104.335	120.760	144.132	116.702	106.006	104.192	115.484	136.779	113.121	50.662
1.000	315.496	313.968	312.751	314.947	298.832	275.460	303.010	313.324	315.138	303.512	281.930	306.209	104.741	106.102	107.105	104.168	120.689	143.989	116.654	105.911	104.192	115.508	136.851	113.145	50.843
2.000	315.138	314.326	312.392	315.114	298.474	275.198	302.962	313.013	314.851	303.607	282.312	306.114	104.526	106.054	107.200	104.216	120.665	143.918	116.702	106.102	104.192	115.365	136.708	113.049	42.902
3.000	314.708	314.278	312.345	314.875	298.379	275.221	302.676	313.109	315.114	304.037	282.933	306.782	104.407	105.863	107.105	104.049	120.545	143.870	116.559	106.078	104.335	115.508	136.732	113.001	33.156
4.000	314.995	314.087	312.201	314.875	298.904	275.508	302.962	313.156	314.828	303.631	282.360	306.543	104.502	106.006	107.200	104.311	120.665	143.870	116.559	105.959	104.311	115.389	136.517	113.001	28.554
5.000	315.687	313.825	312.512	315.138	299.071	275.914	303.058	313.538	315.257	303.607	282.551	306.591	104.431	106.030	107.200	104.240	120.689	143.798	116.630	105.983	104.264	115.341	136.374	112.954	32.659
6.000	315.806	313.825	312.392	314.947	299.095	276.200	303.201	313.228	314.851	303.703	282.431	306.639	104.574	105.625	107.152	104.311	120.641	143.536	116.511	105.959	104.264	115.198	136.135	113.073	42.089
7.000	315.711	314.016	312.297	314.613	298.403	275.985	303.416	313.252	315.329	304.180	283.195	306.567	104.407	105.815	107.200	104.216	120.593	143.464	116.463	106.078	104.264	115.198	136.039	112.978	50.436
8.000	315.663	314.016	312.154	315.186	298.785	276.773	303.774	313.538	315.066	303.822	283.362	306.400	104.479	105.792	107.200	104.073	120.593	143.345	116.344	105.911	104.216	115.246	135.896	112.978	51.023
9.000	315.568	313.586	312.965	315.210	299.023	276.248	303.368	313.443	315.544	304.228	283.291	306.114	104.646	105.815	107.081	104.025	120.354	143.130	116.511	105.935	104.192	115.150	135.753	113.001	43.894
10.000	313.992	313.085	312.201	314.326	298.689	276.296	303.177	313.276	314.899	303.512	282.384	306.138	106.150	106.436	107.200	104.192	120.450	143.249	116.391	105.935	104.216	115.675	136.493	113.336	34.239
11.000	305.541	309.575	312.679	315.400	298.641	272.715	301.530	312.655	314.613	301.076	269.922	304.180	114.076	110.137	107.200	104.073	120.760	147.212	117.967	106.747	104.479	117.681	149.790	115.150	29.095
12.000	292.052	304.466	312.440	314.446	297.137	263.882	298.188	312.010	314.780	297.448	250.918	300.193	126.800	114.887	107.224	104.216	121.548	154.613	121.309	107.511	104.861	121.572	167.385	118.874	32.614
13.000	276.009	297.639	312.607	314.517	296.493	253.497	293.365	310.077	314.374	292.721	232.345	295.204	142.008	121.453	107.176	104.741	122.766	165.165	125.774	109.015	105.219	126.514	185.815	123.434	40.826
14.000	260.277	288.710	312.345	314.064	294.798	243.709	288.567	308.764	313.586	284.699	223.321	289.904	158.671	130.357	107.081	104.717	124.126	175.383	130.883	110.542	105.505	133.915	196.821	129.355	47.278
15.000	247.385	278.803	312.774	314.231	293.174	235.448	283.697	306.830	312.942	276.224	227.976	282.288	173.115	141.578	107.057	105.075	126.180	184.860	135.872	112.166	106.078	143.679	190.447	137.137	47.774
16.000	233.753	267.224	312.273	313.419	290.644	228.262	278.540	304.920	312.440	266.006	238.409	273.956	186.293	152.942	106.985	105.266	128.376	192.142	141.459	114.529	106.794	154.231	180.372	145.995	42.586
17.000	224.037	255.550	312.321	313.156	288.137	223.464	273.216	301.960	311.342	254.929	249.056	264.264	195.938	164.878	107.009	105.672	131.002	196.917	147.164	117.442	107.845	164.855	169.868	154.732	37.938
18.000	224.013	243.876	312.679	312.822	285.439	223.774	266.961	298.235	310.124	243.947	256.648	254.881	196.081	175.789	107.105	106.579	133.986	195.532	152.655	120.665	108.991	175.335	160.486	164.401	36.224
19.000	229.814	233.562	312.846	312.392	282.336	227.427	261.566	294.392	308.764	233.920	264.860	245.308	189.635	185.362	106.914	106.866	136.923	191.641	158.170	124.150	110.447	184.908	152.703	173.306	38.029
20.000	236.833	225.469	312.392	311.342	278.707	231.485	255.430	290.453	306.663	224.729	271.497	236.714	182.903	194.123	107.033	107.749	140.193	186.961	163.709	128.280	112.237	193.741	145.756	181.900	40.285
21.000	241.655	221.363	312.631	310.220	276.153	235.806	249.749	285.869	304.681	220.360	277.848	228.453	177.293	198.826	107.176	108.680	143.559	182.330	169.605	133.031	114.434	198.635	139.811	189.993	41.142
22.000	247.863	224.753	311.891	309.217	271.999	240.677	244.138	280.808	302.246	225.445	282.503	222.915	171.826	194.601	107.176	109.731	146.902	178.176	174.905	137.901	116.988	193.503	135.275	196.654	39.879
23.000	252.398	230.769	312.058	307.761	267.773	244.640	239.029	276.033	298.952	231.294	286.991	220.527	166.860	189.277	107.152	110.781	151.008	173.950	180.802	143.536	119.805	187.415	130.620	198.468	39.157
24.000	257.078	235.639	311.939	306.352	263.667	248.650	233.825	271.020	296.540	237.406	290.596	223.917	163.183	184.359	107.248	112.309	155.281	169.772	185.792	148.788	123.076	181.733	127.421	194.816	39.292
25.000	260.229	240.509	312.297	305.111	259.608	252.160	228.955	265.123	293.150	243.422	293.986	229.337	159.674	179.155	107.343	113.956	159.626	166.430	190.877	154.088	126.633	176.290	124.198	189.659	41.458
26.000	263.667	244.472	312.464	303.631	255.263	255.645	224.514	259.393	289.140	248.292	296.803	233.515	156.045	174.977	107.487	115.627	163.923	162.515	195.007	159.125	129.713	170.775	121.381	185.051	43.082
27.000	267.486	249.008	311.175	300.527	250.083	258.820	221.387	254.022	285.511	252.637	298.785	237.430	152.727	170.441	107.463	117.418	168.531	159.650	198.683	164.687	133.628	166.191	118.659	180.707	41.909
28.000	269.683	253.043	311.867	299.119	245.523	261.900	219.740	248.961	281.691	257.316	301.769	242.491	149.695	166.406	107.582	119.399	172.924	156.403	200.521	169.940	137.137	161.775	116.606	176.099	39.247
29.000	272.572	255.574	311.676	296.349	241.393	264.073	220.790	243.279	277.704	259.990	302.724	245.523	147.809	163.947	107.701	121.811	177.698	154.183	199.256	175.239	141.196	159.149	115.150	173.210	35.818
30.000	272.667	256.075	311.891	296.612	239.053	264.980	221.077	242.252	276.917	260.324	303.249	246.263	147.427	163.685	107.869	122.097	180.014	153.730	199.089	176.576	142.127	158.600	114.864	172.590	36.495
31.000	272.786	255.407	311.987	297.233	238.958	264.765	220.814	243.661	277.943	259.847	303.631	246.335	147.713	164.138	107.964	121.835	180.110	154.231	199.089	175.741	141.482	159.029	114.720	172.757	39.292
32.000	272.381	254.547	311.652	297.448	238.982	264.455	221.029	244.544	278.850	259.489	303.989	245.786	147.952	164.616	107.797	121.405	180.157	154.446	199.161	174.619	140.671	160.128	115.102	172.900	43.669
33.000	271.855	254.643	311.819	297.973	239.220	263.738	220.933	245.404	279.089	258.749	303.321	246.048	147.713	164.902	107.630	121.118	180.062	154.541	199.137	173.926	140.122	160.199	115.007	173.067	44.481
34.000	274.076	257.102	311.438	296.469	237.979	265.338	222.390	244.091	278.397	261.160	303.870	248.101	145.995	162.515	107.678	122.073	180.969	152.989	197.728	175.168	141.005	157.836	113.909	170.608	43.127
35.000	268.179	255.860	311.294	293.819	234.589	267.439	224.108	239.769	274.362	262.378	305.039	248.006	153.061	163.279	107.892	124.580	184.097	151.223	195.484	179.322	144.610	156.618	113.407	170.966	39.247
36.000	245.547	244.616	311.461	291.646	231.748	268.728	225.326	240.199	274.816	259.990	304.084	239.889	175.741	175.216	107.964	126.920	187.630	150.125	194.649	178.964	144.681	159.411	114.816	180.086	36.675
37.000	228.835	229.957	312.010	290.262	229.743	268.489	225.039	244.067	277.298	254.356	301.411	227.427	190.781	189.755	108.036	128.567	189.946	150.005	194.840	174.953	141.268	164.783	117.132	191.903	37.803
38.000	243.398	228.286	311.652	289.259	228.740	268.012	223.989	249.414	282.025	247.122	298.403	228.048	175.765	190.208	107.940	129.331	191.139	150.745	195.675	169.367	137.018	171.276	120.068	191.091	39.112
39.000	258.653	242.467	311.008	289.044	228.358	266.746	222.509	255.550	286.323	238.838	294.249	241.632	161.441	177.078	107.916	129.259	191.402	152.416	197.108	163.780	132.530	179.513	123.959	177.555	39.292
40.000	271.927	255.860	311.533	290.142	229.098	264.502	220.981	261.614	290.954	230.745	289.593	255.645	148.310	164.114	107.892	129.092	190.877	154.135	198.803	157.740	128.448	188.704	128.400	164.234	38.074
41.000	282.169	267.248	311.390	290.644	230.530	262.521	220.074	268.179	294.893	223.106	284.675	266.842	137.639	152.846	108.060	128.137	189.205	156.594	200.020	151.438	124.246	196.296	134.416	152.584	38.254
42.000	290.715	276.105	311.414	291.861	232.488	259.274	220.671	274.171	298.689	228.812	278.301	275.603	130.835	143.512	107.988	126.991	186.723	159.292	198.994	145.326	120.760	191.091	140.432	143.798	41.999
43.000	295.562	283.171	311.438	293.389	234.971	255.550	223.249	279.328	301.244	237.883	271.187	281.572	124.485	136.087	107.940	125.296	183.810	162.658	196.033	139.716	117.728	181.017	147.427	136.994	45.744
44.000	299.310	288.973	311.318	294.941	238.791	252.351	227.522	283.888	303.750	247.170	263.619	286.466	120.522	130.787	107.988	123.864	180.253	166.168	192.309	134.798	115.246	171.467	154.541	132.554	46.150
45.000	302.676	292.936	311.628	296.827	242.658	248.244	231.366	288.543	305.899	255.765	255.383	289.951	117.299	126.585	107.940	121.811	176.027	169.868	188.012	130.716	113.192	162.873	162.587	128.949	41.683
46.000	305.063	296.397	311.867	298.665	247.242	243.828	236.165	291.527	307.546	263.714	247.361	292.936	115.269	123.052	107.964	120.187	171.897	174.070	183.547	127.039	111.855	155.711	170.990	126.323	35.231
47.000	306.018	299.143	311.939	300.169	251.826	239.053	240.247	294.440	308.334	269.683	238.671	295.227	113.240	120.593	107.678	118.254	167.433	179.035	179.179	124.532	110.638	149.981	179.775	124.604	31.486
48.000	307.880	301.196	311.438	301.864	256.433	234.780	245.045	297.495	309.933	274.696	230.626	296.684	111.617	118.397	107.654	116.773	162.778	183.643	174.714	122.026	109.635	144.777	187.892	122.933	34.194
49.000	309.193	303.392	312.034	303.798	261.088	231.032	249.438	299.310	310.172	278.468	223.512	297.877	110.829	116.726	107.630	115.293	158.194	188.131	170.226	119.758	108.800	140.814	195.102	121.715	41.187
50.000	310.172	304.825	312.321	305.087	265.099	226.424	253.473	301.148	311.056	281.381	220.193	298.570	109.850	115.389	107.463	113.885	154.088	192.524	165.905	118.039	107.988	137.472	199.208	120.736	48.226
51.000	310.483	305.421	312.082	306.424	268.943	223.607	257.006	302.151	311.390	283.911	223.416	299.716	109.110	114.243	107.463	112.596	150.101	195.723	162.348	116.773	107.558	134.678	195.436	119.853	49.805
52.000	311.318	307.116	312.297	307.737	271.927	221.649	260.778	303.321	312.058	286.084	228.310	300.002	108.752	113.312	107.343	111.545	146.782	197.967	158.743	115.580	107.152	132.649	190.566	119.280	44.345
53.000	311.342	307.212	312.488	308.095	275.412	222.390	264.311	304.538	312.727	288.089	232.751	301.124	108.107	112.763	107.391	110.686	143.965	197.872	155.329	114.625	107.009	131.265	186.078	118.325	36.675
54.000	312.178	307.880	311.867	308.740	277.919	224.299	267.391	305.350	312.512	289.498	236.857	301.124	108.179	111.832	107.439	110.160	141.578	195.699	152.464	113.837	106.627	129.689	181.852	118.421	30.358
55.000	311.915	308.310	312.369	309.671	280.116	226.782	270.041	306.066	313.013	290.787	240.772	301.602	107.534	111.474	107.367	109.325	139.214	192.977	149.767	113.169	106.365	128.376	178.200	117.800	31.712
56.000	312.894	308.525	312.607	310.387	281.763	229.599	272.309	306.925	313.562	292.386	244.138	301.888	107.343	110.924	107.320	108.776	137.185	190.065	147.188	112.643	106.317	127.373	175.216	117.633	38.660
57.000	312.989	309.002	312.416	310.865	283.649	231.963	275.030	307.045	313.252	293.079	246.955	302.007	107.081	110.638	107.248	108.012	135.466	187.463	144.872	112.070	105.983	126.538	172.184	117.155	47.504
58.000	312.989	309.838	312.201	311.151	285.105	234.517	276.535	307.451	313.705	293.532	249.247	302.580	106.985	110.137	107.200	107.582	134.297	184.789	143.106	111.569	105.935	125.678	169.677	116.893	50.888
59.000	313.204	310.196	312.249	311.533	285.750	236.785	278.062	308.382	313.968	294.654	251.563	302.557	106.651	109.778	107.200	107.415	133.103	182.640	141.148	111.211	105.720	124.914	167.266	116.654	46.421
60.000	313.324	310.077	312.655	312.225	287.278	238.862	280.116	308.262	313.658	294.893	253.616	303.201	106.508	109.683	107.224	107.152	132.172	180.372	139.405	110.686	105.577	124.317	165.404	116.511	38.435
61.000	313.562	310.697	312.297	312.273	287.660	240.700	281.763	308.692	313.849	295.848	255.741	302.939	106.651	109.420	107.343	106.866	131.336	178.271	138.236	110.519	105.481	123.625	163.398	116.439	30.855
62.000	313.777	310.363	312.154	312.273	288.686	243.040	282.885	309.122	314.159	296.278	257.412	303.225	106.269	109.062	107.296	106.556	130.334	176.314	136.732	110.208	105.386	123.243	161.966	116.009	30.358
63.000	313.276	310.817	312.727	312.727	289.331	245.022	284.365	309.456	313.992	296.660	258.271	303.321	106.341	109.015	107.391	106.388	129.665	174.667	135.729	110.041	105.410	122.670	160.629	115.962	36.946
64.000	314.159	310.912	312.321	313.228	290.357	246.502	285.583	309.719	313.896	296.755	259.680	303.488	105.911	108.704	107.224	106.245	129.235	173.258	134.559	109.683	105.290	122.384	159.340	115.723	45.744
65.000	314.159	311.175	312.416	312.942	290.715	247.839	286.251	309.671	314.278	297.448	260.802	303.703	105.887	108.561	107.415	106.078	128.662	171.682	133.437	109.397	105.338	121.858	158.051	115.627	51.113
66.000	314.374	311.390	312.560	313.085	290.739	249.199	287.254	309.862	313.777	297.758	262.187	303.726	106.078	108.465	107.152	105.887	128.209	170.226	132.602	109.301	105.147	121.357	156.857	115.413	48.090
67.000	313.849	311.700	312.201	313.514	291.742	250.130	288.065	310.363	314.087	298.283	263.356	303.870	105.672	108.155	107.200	105.887	127.707	169.056	131.599	109.086	105.028	121.023	155.902	115.341	40.465
68.000	314.422	311.605	313.013	313.729	292.148	251.730	288.901	310.005	314.374	298.570	264.025	304.156	105.481	108.179	107.272	105.768	127.493	167.743	130.883	108.967	105.195	120.904	155.043	115.198	31.441
69.000	314.398	311.557	312.583	313.705	292.601	252.518	289.259	310.387	314.350	298.713	265.242	304.395	105.577	108.060	107.176	105.410	126.896	166.741	130.238	108.847	105.171	120.617	154.064	115.126	29.682
70.000	314.708	311.557	312.154	313.085	292.315	253.568	290.620	310.817	314.589	298.904	265.720	304.514	105.457	107.845	107.129	105.529	126.776	165.809	129.474	108.656	105.028	120.378	153.324	115.078	35.457
71.000	314.613	312.010	312.345	314.135	293.341	255.072	290.930	310.769	314.326	298.737	266.436	304.252	105.553	107.797	107.200	105.434	126.490	164.640	128.806	108.609	105.099	120.068	152.584	114.959	44.661
72.000	314.732	311.748	312.178	313.514	292.983	255.478	291.694	310.912	314.422	299.190	267.105	304.657	105.672	107.654	107.176	105.386	126.203	163.852	128.280	108.298	105.028	119.829	151.796	114.983	50.707
73.000	314.398	311.987	312.297	314.040	293.365	256.552	292.028	311.103	314.565	299.501	268.083	304.490	105.410	107.582	107.176	105.219	125.821	162.849	127.660	108.251	104.956	119.734	151.103	114.792	49.985
74.000	313.849	312.010	311.963	313.658	293.891	257.531	292.339	311.056	314.637	299.740	268.609	304.586	105.219	107.534	107.176	105.147	125.654	162.205	127.206	108.155	104.956	119.567	150.554	114.720	42.811
75.000	314.446	312.583	312.273	313.896	293.867	257.985	293.174	311.294	314.446	299.811	268.991	304.920	105.195	107.415	107.224	105.243	125.487	161.417	126.657	107.964	104.956	119.209	149.934	114.720	34.058
76.000	314.326	312.225	312.225	314.326	294.535	258.916	293.413	311.199	314.469	299.931	269.635	304.896	105.195	107.463	107.224	105.243	125.177	160.581	126.251	107.964	104.956	119.161	149.504	114.840	29.140
77.000	314.637	312.512	312.178	313.873	294.392	259.489	293.747	311.461	314.756	300.480	269.850	304.992	105.266	107.415	107.248	105.123	125.105	160.104	125.941	107.845	104.622	118.970	149.313	114.673	32.163
78.000	314.613	312.583	312.201	314.016	294.058	259.775	294.129	311.461	314.804	300.933	271.354	305.039	104.956	107.343	107.200	105.052	124.699	159.459	125.583	107.940	104.813	118.922	148.525	114.386	40.510
79.000	315.162	312.416	312.560	313.992	294.463	260.611	294.607	311.939	314.756	300.742	271.449	304.657	105.338	107.224	107.152	104.908	124.508	158.671	125.105	107.797	104.741	118.707	147.761	114.434	49.173
80.000	315.066	312.942	312.631	314.040	294.989	261.661	295.132	311.581	314.398	300.718	271.712	304.634	105.219	107.152	107.272	104.789	124.461	157.740	124.580	107.654	104.789	118.612	147.069	114.458	51.158
81.000	314.565	313.085	312.416	314.541	295.538	262.664	295.156	311.557	314.255	300.885	272.834	304.801	105.123	107.105	107.343	105.004	124.174	157.143	124.150	107.558	104.813	118.397	146.448	114.362	44.977
82.000	315.042	312.703	312.178	314.207	295.132	263.309	295.920	311.891	314.732	300.647	273.049	305.302	105.028	107.057	107.200	104.765	124.103	156.570	123.744	107.487	104.646	118.254	145.947	114.386	35.322
83.000	314.875	313.109	312.369	314.684	295.347	263.356	296.254	311.605	314.398	301.291	274.052	305.278	105.266	106.818	107.152	104.813	123.983	155.950	123.601	107.463	104.813	118.230	145.422	114.171	29.230
84.000	314.660	313.347	312.583	313.992	295.657	263.667	296.540	311.748	314.660	301.530	274.386	305.589	104.908	106.961	107.081	104.693	123.840	155.377	123.219	107.439	104.741	118.015	145.016	114.123	30.900
85.000	314.899	313.395	312.846	314.398	295.609	264.693	296.755	312.034	314.374	301.315	274.314	305.302	105.099	106.818	107.224	104.741	123.625	154.923	122.766	107.152	104.502	117.848	144.658	114.147	38.480
86.000	314.899	313.037	312.416	314.637	295.991	265.219	297.137	311.772	314.804	301.244	274.553	304.944	104.646	106.770	107.224	104.717	123.577	154.446	122.527	107.320	104.526	117.633	144.276	114.171	47.729
87.000	315.042	313.276	312.870	314.732	295.848	265.409	297.304	311.796	314.326	301.363	274.840	305.183	104.789	106.699	107.224	104.837	123.577	154.111	122.193	107.105	104.479	117.633	143.941	114.123	51.745
88.000	314.637	313.324	312.560	314.493	295.920	265.887	297.281	312.010	314.517	301.697	275.436	305.350	104.908	106.699	107.200	104.502	123.148	153.395	122.073	107.272	104.574	117.466	143.655	114.052	46.782
89.000	315.353	313.061	312.392	314.589	296.278	266.341	297.973	312.273	314.851	301.721	275.460	305.254	104.837	106.579	107.105	104.670	123.315	153.180	121.882	107.081	104.479	117.394	143.464	114.123	38.209
